File: baseline_out/VIEW_UniformEL.csv
file_name,alloy,card,Al,Si,Fe,Cu,Mn,Mg,Cr,Ni,Zn,Ti,Zr,Sc,Other,YS (MPa),UTS (MPa),Uniform EL (percentage),Fracture EL (percentage),YPE (percentage),Casting,Ingot thickness (mm),Homogenization (Celsius/Seconds),homog_steps,homog_time_total_s,homog_temp_max_C,homog_T_time_weighted_C,homog_time_at_ge_520C_s,adequate_homog,Hot rolling reduction (percentage),Cold rolling reduction (percentage),Recrystallization annealing (Celsius/Seconds),recryst_type,recryst_steps,recryst_time_total_s,recryst_temp_max_C,recryst_T_time_weighted_C,adequate_recryst,adequate_recryst_batch,adequate_recryst_flash,Mean grain size (µm),Secondary phase particle size and density,Crystallographic texture,flag_missing_YS,flag_missing_UTS,flag_missing_FractureEL,flag_missing_UniformEL,flag_missing_YPE,Homogenization_RAW,Recrystallization annealing_RAW,comp_sum_before,comp_fix_applied,comp_sum_after,Al_RAW,Si_RAW,Fe_RAW,Cu_RAW,Mn_RAW,Mg_RAW,Cr_RAW,Ni_RAW,Zn_RAW,Ti_RAW,Zr_RAW,Sc_RAW,Other_RAW
AA5xxx Card - 002A.docx,AA5xxx,002A,96.405,0.06,0.19,1e-08,0.26,3.08,1e-08,1e-08,1e-08,0.005,1e-08,1e-08,1e-08,225.5,276.4,9.3,9.3,0.0,DC,635.0,540/18000,1.0,18000.0,540.0,540.0,18000.0,1.0,99.6,86.0,250/3600,flash,1,3600,250.0,250.0,0,0,0,2.0,,,0,0,0,0,0,540°C > 5 hours,"Flash annealing, 250°C 1 hour",3.595,1,100.0,1e-08,0.06,0.19,1e-08,0.26,3.08,1e-08,1e-08,1e-08,0.005,1e-08,1e-08,1e-08
AA5xxx Card - 002D.docx,AA5xxx,002D,96.405,0.06,0.19,1e-08,0.26,3.08,1e-08,1e-08,1e-08,0.005,1e-08,1e-08,1e-08,115.8,229.5,21.0,22.8,2.0,DC,635.0,540/18000,1.0,18000.0,540.0,540.0,18000.0,1.0,99.6,86.0,350/3600,flash,1,3600,350.0,350.0,1,0,1,8.2,,,0,0,0,0,0,540°C > 5 hours,"Flash annealing, 350°C 1 hour",3.595,1,100.0,1e-08,0.06,0.19,1e-08,0.26,3.08,1e-08,1e-08,1e-08,0.005,1e-08,1e-08,1e-08
AA5xxx Card - 002G.docx,AA5xxx,002G,96.405,0.06,0.19,1e-08,0.26,3.08,1e-08,1e-08,1e-08,0.005,1e-08,1e-08,1e-08,114.5,224.7,21.1,21.1,2.0,DC,635.0,540/18000,1.0,18000.0,540.0,540.0,18000.0,1.0,99.6,96.0,350/3600,flash,1,3600,350.0,350.0,1,0,1,7.8,,,0,0,0,0,0,540°C > 5 hours,"Flash annealing, 350°C 1 hour",3.595,1,100.0,1e-08,0.06,0.19,1e-08,0.26,3.08,1e-08,1e-08,1e-08,0.005,1e-08,1e-08,1e-08
AA5xxx Card - 003C.docx,AA5xxx,003C,96.405,0.06,0.19,1e-08,0.26,3.08,1e-08,1e-08,1e-08,0.005,1e-08,1e-08,1e-08,98.8,223.8,20.4,24.2,1.0,DC,635.0,540/18000,1.0,18000.0,540.0,540.0,18000.0,1.0,99.2,47.0,350/7200,batch,1,7200,350.0,350.0,1,1,0,17.3,,3.7,0,0,0,0,0,540°C > 5 hours,"Batch annealing, 350°C 2 hours",3.595,1,100.0,1e-08,0.06,0.19,1e-08,0.26,3.08,1e-08,1e-08,1e-08,0.005,1e-08,1e-08,1e-08
AA5xxx Card - 020B.docx,AA5xxx,020B,94.305,0.03,0.05,1e-08,0.99,4.62,1e-08,1e-08,1e-08,0.005,1e-08,1e-08,1e-08,173.0,344.5,21.5,24.0,,DC,95.25,540/19800,1.0,19800.0,540.0,540.0,19800.0,1.0,89.0,81.0,350/7200,batch,1,7200,350.0,350.0,1,1,0,10.8,Yes,,0,0,0,0,1,"540°C, 5 - 6 hours","batch annealing, 350°C 2 hours",5.695,1,100.0,1e-08,0.03,0.05,1e-08,0.99,4.62,1e-08,1e-08,1e-08,0.005,1e-08,1e-08,1e-08
AA5xxx Card - 020E.docx,AA5xxx,020E,94.165,0.06,0.16,1e-08,0.99,4.62,1e-08,1e-08,1e-08,0.005,1e-08,1e-08,1e-08,176.0,347.0,20.3,25.0,,DC,95.25,540/19800,1.0,19800.0,540.0,540.0,19800.0,1.0,89.0,81.0,350/7200,batch,1,7200,350.0,350.0,1,1,0,10.7,Yes,,0,0,0,0,1,"540°C, 5 - 6 hours","batch annealing, 350°C 2 hours",5.835,1,100.0,1e-08,0.06,0.16,1e-08,0.99,4.62,1e-08,1e-08,1e-08,0.005,1e-08,1e-08,1e-08
AA5xxx Card - 020H.docx,AA5xxx,020H,94.105,0.06,0.27,1e-08,0.95,4.61,1e-08,1e-08,1e-08,0.005,1e-08,1e-08,1e-08,176.0,341.3,21.3,25.3,,DC,95.25,540/19800,1.0,19800.0,540.0,540.0,19800.0,1.0,89.0,81.0,350/7200,batch,1,7200,350.0,350.0,1,1,0,10.2,Yes,,0,0,0,0,1,"540°C, 5 - 6 hours","batch annealing, 350°C 2 hours",5.895,1,100.0,1e-08,0.06,0.27,1e-08,0.95,4.61,1e-08,1e-08,1e-08,0.005,1e-08,1e-08,1e-08
AA5xxx Card - 021B.docx,AA5xxx,021B,98.615,0.08,0.45,1e-08,0.05,0.8,1e-08,1e-08,1e-08,0.005,1e-08,1e-08,1e-08,50.0,121.8,27.1,27.2,,DC,635.0,540/18000,1.0,18000.0,540.0,540.0,18000.0,1.0,99.0,75.0,320/7200,batch,1,7200,320.0,320.0,1,1,0,30.0,,,0,0,0,0,1,540°C > 5 hours,"batch annealing, 320°C 2 hours",1.385,1,100.0,1e-08,0.08,0.45,1e-08,0.05,0.8,1e-08,1e-08,1e-08,0.005,1e-08,1e-08,1e-08
AA5xxx Card - 022A.docx,AA5xxx,022A,98.715,0.08,0.1,1e-08,0.1,1.0,1e-08,1e-08,1e-08,0.005,1e-08,1e-08,1e-08,50.0,112.5,17.4,17.5,0.0,DC,635.0,540/18000,1.0,18000.0,540.0,540.0,18000.0,1.0,99.6,50.0,325/7200,batch,1,7200,325.0,325.0,1,1,0,60.0,,,0,0,0,0,0,540°C > 5 hours,"batch annealing, 325°C 2 hours",1.285,1,100.0,1e-08,0.08,0.1,1e-08,0.1,1.0,1e-08,1e-08,1e-08,0.005,1e-08,1e-08,1e-08
AA5xxx Card - 022D.docx,AA5xxx,022D,98.715,0.08,0.1,1e-08,0.1,1.0,1e-08,1e-08,1e-08,0.005,1e-08,1e-08,1e-08,50.0,112.7,16.6,16.7,0.0,DC,635.0,540/18000,1.0,18000.0,540.0,540.0,18000.0,1.0,99.6,60.0,325/7200,batch,1,7200,325.0,325.0,1,1,0,62.0,,,0,0,0,0,0,540°C > 5 hours,"batch annealing, 325°C 2 hours",1.285,1,100.0,1e-08,0.08,0.1,1e-08,0.1,1.0,1e-08,1e-08,1e-08,0.005,1e-08,1e-08,1e-08
AA5xxx Card - 022G.docx,AA5xxx,022G,98.715,0.08,0.1,1e-08,0.1,1.0,1e-08,1e-08,1e-08,0.005,1e-08,1e-08,1e-08,50.0,115.8,19.5,19.5,0.0,DC,635.0,540/18000,1.0,18000.0,540.0,540.0,18000.0,1.0,99.6,70.0,325/7200,batch,1,7200,325.0,325.0,1,1,0,60.0,,,0,0,0,0,0,540°C > 5 hours,"batch annealing, 325°C 2 hours",1.285,1,100.0,1e-08,0.08,0.1,1e-08,0.1,1.0,1e-08,1e-08,1e-08,0.005,1e-08,1e-08,1e-08
AA5xxx Card - 022J.docx,AA5xxx,022J,98.715,0.08,0.1,1e-08,0.1,1.0,1e-08,1e-08,1e-08,0.005,1e-08,1e-08,1e-08,50.0,120.4,17.7,17.7,0.0,DC,635.0,540/18000,1.0,18000.0,540.0,540.0,18000.0,1.0,99.6,79.0,325/7200,batch,1,7200,325.0,325.0,1,1,0,30.0,,,0,0,0,0,0,540°C > 5 hours,"batch annealing, 325°C 2 hours",1.285,1,100.0,1e-08,0.08,0.1,1e-08,0.1,1.0,1e-08,1e-08,1e-08,0.005,1e-08,1e-08,1e-08
AA5xxx Card - 024A.docx,AA5xxx,024A,98.615,0.08,0.45,1e-08,0.05,0.8,1e-08,1e-08,1e-08,0.005,1e-08,1e-08,1e-08,50.0,115.0,23.0,23.5,0.0,DC,635.0,540/18000,1.0,18000.0,540.0,540.0,18000.0,1.0,99.0,70.0,400/7200,batch,1,7200,400.0,400.0,1,1,0,69.4,,,0,0,0,0,0,540°C > 5 hours,"batch annealing, 400°C 2 hours",1.385,1,100.0,1e-08,0.08,0.45,1e-08,0.05,0.8,1e-08,1e-08,1e-08,0.005,1e-08,1e-08,1e-08
AA5xxx Card - 041A.docx,AA5xxx,041A,96.856,0.08,0.19,1e-08,0.003,2.87,1e-08,1e-08,1e-08,0.001,1e-08,1e-08,1e-08,90.0,205.0,22.8,28.7,,DC,95.25,520/19800,1.0,19800.0,520.0,520.0,19800.0,1.0,99.0,70.0,350/7200,batch,1,7200,350.0,350.0,1,1,0,16.0,,,0,0,0,0,1,520°C 5.5 hours,"batch annealing, 350°C 2 hours",3.144,1,100.0,1e-08,0.08,0.19,1e-08,0.003,2.87,1e-08,1e-08,1e-08,0.001,1e-08,1e-08,1e-08
AA5xxx Card - 041D.docx,AA5xxx,041D,96.079,0.08,0.18,1e-08,0.78,2.88,1e-08,1e-08,1e-08,0.001,1e-08,1e-08,1e-08,109.0,244.0,21.3,24.0,,DC,95.25,520/19800,1.0,19800.0,520.0,520.0,19800.0,1.0,99.0,70.0,350/7200,batch,1,7200,350.0,350.0,1,1,0,14.7,,,0,0,0,0,1,520°C 5.5 hours,"batch annealing, 350°C 2 hours",3.921,1,100.0,1e-08,0.08,0.18,1e-08,0.78,2.88,1e-08,1e-08,1e-08,0.001,1e-08,1e-08,1e-08
AA5xxx Card - 044A.docx,AA5xxx,044A,96.649,0.07,0.19,1e-08,0.2,2.89,1e-08,1e-08,1e-08,0.001,1e-08,1e-08,1e-08,95.0,215.5,24.2,28.0,,DC,95.25,520/19800,1.0,19800.0,520.0,520.0,19800.0,1.0,99.0,70.0,350/7200,batch,1,7200,350.0,350.0,1,1,0,18.4,,,0,0,0,0,1,520°C 5.5 hours,"batch annealing, 350°C 2 hours",3.351,1,100.0,1e-08,0.07,0.19,1e-08,0.2,2.89,1e-08,1e-08,1e-08,0.001,1e-08,1e-08,1e-08
AA5xxx Card - 055A.docx,AA5xxx,055A,96.463,0.05,0.28,0.01,0.29,2.89,1e-08,1e-08,0.01,0.007,1e-08,1e-08,1e-08,107.0,224.0,21.9,25.3,1.2,steel mould (~0.4°C/sec),63.5,540/18000,1.0,18000.0,540.0,540.0,18000.0,1.0,86.5,68.3,350/7200,other,1,7200,350.0,350.0,0,0,0,29.3,yes,,0,0,0,0,0,540°C > 5 hours,350°C 2 hours,3.537,1,100.0,1e-08,0.05,0.28,0.01,0.29,2.89,1e-08,1e-08,0.01,0.007,1e-08,1e-08,1e-08
AA5xxx Card - 055D.docx,AA5xxx,055D,95.663,0.05,1.0,0.01,0.23,3.03,1e-08,1e-08,0.01,0.007,1e-08,1e-08,1e-08,127.0,247.0,19.4,21.3,1.4,steel mould (~0.4°C/sec),63.5,540/18000,1.0,18000.0,540.0,540.0,18000.0,1.0,86.5,68.3,350/7200,other,1,7200,350.0,350.0,0,0,0,11.4,yes,,0,0,0,0,0,540°C > 5 hours,350°C 2 hours,4.337,1,100.0,1e-08,0.05,1.0,0.01,0.23,3.03,1e-08,1e-08,0.01,0.007,1e-08,1e-08,1e-08
AA5xxx Card - 055G.docx,AA5xxx,055G,95.807,0.05,0.05,0.74,0.25,3.09,1e-08,1e-08,0.01,0.003,1e-08,1e-08,1e-08,104.0,239.0,18.6,24.0,1.0,steel mould (~0.4°C/sec),63.5,540/18000,1.0,18000.0,540.0,540.0,18000.0,1.0,86.5,68.3,350/7200,other,1,7200,350.0,350.0,0,0,0,33.1,yes,,0,0,0,0,0,540°C > 5 hours,350°C 2 hours,4.193,1,100.0,1e-08,0.05,0.05,0.74,0.25,3.09,1e-08,1e-08,0.01,0.003,1e-08,1e-08,1e-08
AA5xxx Card - 055J.docx,AA5xxx,055J,96.207,0.5,0.05,0.01,0.25,2.97,1e-08,1e-08,0.01,0.003,1e-08,1e-08,1e-08,100.0,207.0,20.8,23.7,1.3,steel mould (~0.4°C/sec),63.5,540/18000,1.0,18000.0,540.0,540.0,18000.0,1.0,86.5,68.3,350/7200,other,1,7200,350.0,350.0,0,0,0,19.0,yes,,0,0,0,0,0,540°C > 5 hours,350°C 2 hours,3.793,1,100.0,1e-08,0.5,0.05,0.01,0.25,2.97,1e-08,1e-08,0.01,0.003,1e-08,1e-08,1e-08
AA5xxx Card - 055M.docx,AA5xxx,055M,96.297,0.05,0.05,0.01,0.25,3.08,1e-08,1e-08,0.26,0.003,1e-08,1e-08,1e-08,102.0,225.0,23.9,29.0,1.0,steel mould (~0.4°C/sec),63.5,540/18000,1.0,18000.0,540.0,540.0,18000.0,1.0,86.5,68.3,350/7200,other,1,7200,350.0,350.0,0,0,0,49.1,yes,,0,0,0,0,0,540°C > 5 hours,350°C 2 hours,3.703,1,100.0,1e-08,0.05,0.05,0.01,0.25,3.08,1e-08,1e-08,0.26,0.003,1e-08,1e-08,1e-08
AA5xxx Card - 055P.docx,AA5xxx,055P,95.617,0.05,0.05,0.01,0.24,3.01,1e-08,1e-08,1.02,0.003,1e-08,1e-08,1e-08,99.0,230.0,20.7,24.3,1.1,steel mould (~0.4°C/sec),63.5,540/18000,1.0,18000.0,540.0,540.0,18000.0,1.0,86.5,68.3,350/7200,other,1,7200,350.0,350.0,0,0,0,51.6,yes,,0,0,0,0,0,540°C > 5 hours,350°C 2 hours,4.383,1,100.0,1e-08,0.05,0.05,0.01,0.24,3.01,1e-08,1e-08,1.02,0.003,1e-08,1e-08,1e-08